SpectraSmart Spectrum 2.1.19.25224
--------- Device Information -----------
Spectrum Name :  光谱_0
Saving Time :  2024/11/05 16:55:36
Spectro-Module Model Name : SE1040-VNIR
Spectro-Module Serial Number : OS361AC55028209
Wavelength Start : 350
Wavelength End : 1020
Wavelength Unit : Wavelength(nm)
Spectrum Unit : 
-----------Spectrum Setting ------------
Integration Time : 900000us
Average : 1
Boxcar : 0
Background removal  : enabled
linearity correction  : enabled
SC  : disabled
Intensity correction  : disabled
savitzky-golay  : disabled
---------------BEGIN--------------------
Wavelength(nm)          Intensity(Counts)
350.32       -104.6475
350.69        42.01385
351.06       -143.8676
351.43        98.55035
351.80       -248.2809
352.17         41.0747
352.54          26.014
352.91       -81.66431
353.28        41.16914
353.65        173.3596
354.02        36.68271
354.39        80.13974
354.76        -70.8042
355.13         251.976
355.50       -105.1409
355.87         -15.651
356.24       -56.10767
356.60       -415.7275
356.97       -51.75098
357.34       -129.5974
357.71       -35.63098
358.08        4.988144
358.45        8.461399
358.82       -80.87744
359.19       -99.29761
359.56         13.1238
359.93       -125.0742
360.30       -40.77087
360.67        134.5022
361.04       -105.9741
361.41       -108.3508
361.78       -102.6376
362.15       -1.494263
362.52       -622.8174
362.89       -25.20093
363.26        11.23998
363.63        49.53894
364.00       -43.94421
364.37       -217.2441
364.74        83.93549
365.11        85.32518
365.48        8.705543
365.85        8.952943
366.22        -182.864
366.59         -61.271
366.96       -11.02429
367.33        -79.6709
367.70       -13.96436
368.07       -75.15417
368.45        64.46022
368.82       -35.45764
369.19        187.5042
369.56       -69.81091
369.93        -75.5376
370.30       -344.1709
370.67         37.7098
371.04       -36.70764
371.41       -80.48767
371.78        68.15276
372.15        168.6635
372.52        24.28603
372.89        70.99693
373.26        10.22166
373.63       -41.35437
374.00       -253.3875
374.37        89.24773
374.74        2.595212
375.11        5.815114
375.48        193.3199
375.85        54.87381
376.22        109.2523
376.59        -11.5376
376.96       -229.9309
377.33        29.21689
377.70       -10.65759
378.07        74.36559
378.44        -51.6842
378.81        28.75458
379.18        55.98378
379.55       -5.747559
379.92       -68.92432
380.30        30.33244
380.67        -107.134
381.04         39.2112
381.41        -74.5675
381.78        39.69112
382.15        105.9481
382.52        7.431017
382.89       -26.07092
383.26       -35.63757
383.63         13.6478
384.00       -93.12097
384.37       -26.11755
384.74        46.48305
385.11        45.45258
385.48       -49.55762
385.85        47.89624
386.22       -20.07776
386.59        13.82146
386.96        81.98608
387.33       -58.40088
387.70        75.44031
388.07        96.32121
388.44        30.96539
388.82       -4.284302
389.19        44.26913
389.56       -61.34766
389.93       -42.39758
390.30        92.51332
390.67       -24.20764
391.04         118.076
391.41        74.44494
391.78       -28.87769
392.15       -17.31433
392.52       -34.51099
392.89        53.24862
393.26       0.6820793
393.63        111.9177
394.00        57.22917
394.37       -57.58423
394.74       -108.9542
395.11        269.9511
395.48        67.41951
395.85       -146.2441
396.22       -56.79102
396.59         23.6266
396.96        48.34642
397.33       -162.8174
397.70        29.73194
398.08       -17.97107
398.45        40.08554
398.82        40.07681
399.19       -36.28772
399.56        116.6889
399.93       -14.02087
400.30       -190.6106
400.67       -156.0809
401.04        231.6676
401.41       -52.46423
401.78        -558.384
402.15        93.01694
402.52       -12.37427
402.89       -132.6941
403.26       -18.69104
403.63       -140.6609
404.00        -172.021
404.37        71.72729
404.74        76.49433
405.11        72.52525
405.48       -117.8508
405.85        -90.0708
406.22       -88.74756
406.59        35.03387
406.96        12.00533
407.33        72.84318
407.70        69.81055
408.07       -6.254395
408.44        51.11988
408.81        66.37135
409.18        35.82283
409.55       -105.2175
409.92        52.68629
410.29       -126.6042
410.66        118.2056
411.03       -109.1406
411.40        84.67745
411.77       -22.11755
412.14        42.88541
412.51        68.91244
412.88        71.24425
413.25        80.43135
413.62        201.1514
413.99        130.5699
414.36        58.33628
414.73        65.16402
415.10        223.3865
415.47        80.56686
415.84        164.2476
416.21        31.98425
416.58          123.84
416.95        18.95811
417.32        134.2605
417.69        138.1046
418.06        115.9821
418.43        180.8719
418.80        161.6643
419.17        177.3808
419.54        214.7178
419.91        219.8063
420.28        217.5436
420.65        201.1044
421.02        288.7331
421.39        353.0031
421.76         394.977
422.13        345.3043
422.50        121.0483
422.87         252.671
423.24        317.5845
423.61        435.8097
423.98         440.018
424.35        500.9735
424.72        414.8204
425.09        479.1799
425.46        397.3338
425.83        716.5469
426.20        340.2601
426.57        520.6245
426.94        704.2302
427.31        676.6877
427.68        746.6024
428.05        694.0189
428.42        768.0923
428.79        845.7046
429.15        892.6367
429.52        927.9417
429.89        1091.499
430.26        1111.694
430.63        998.4602
431.00        1183.807
431.37        1261.981
431.74            1054
432.11        1391.872
432.48        1230.316
432.85        1373.139
433.22        1411.531
433.59        1580.964
433.96        1558.245
434.33        1726.695
434.69        1916.677
435.06        1951.729
435.43        2016.678
435.80        2282.821
436.17          2143.4
436.54        2269.887
436.91        2409.068
437.28        2484.226
437.65        2630.593
438.02        2721.691
438.39        2884.049
438.76        3114.461
439.12        3303.439
439.49        3529.116
439.86        3553.558
440.23        3753.942
440.60        4025.471
440.97         4381.97
441.34        4465.229
441.71        5110.527
442.08        4945.165
442.44        5484.732
442.81        5719.275
443.18        6075.557
443.55        6335.648
443.92         6764.22
444.29        7586.744
444.66        7849.832
445.03        8024.565
445.39        8339.489
445.76        8927.674
446.13        9517.374
446.50        9566.284
446.87        10295.07
447.24        10790.77
447.61        10745.41
447.98        11137.72
448.34         11537.2
448.71        12319.14
449.08        12098.85
449.45        12499.35
449.82        12963.64
450.19        13302.65
450.55        13607.82
450.92        13260.51
451.29        13486.87
451.66        14039.75
452.03        13601.05
452.40        13690.29
452.76        14205.42
453.13        13926.41
453.50        13593.38
453.87        13848.94
454.24        13821.57
454.61        13408.96
454.97        13041.73
455.34        13332.49
455.71        13031.87
456.08        12913.42
456.45        12808.35
456.81        12109.68
457.18        12426.05
457.55        12326.66
457.92        12222.18
458.29        11544.02
458.65        11451.74
459.02        11719.37
459.39        11103.33
459.76        10911.01
460.13        11020.46
460.49        10768.43
460.86        10748.51
461.23        10447.29
461.60        10215.88
461.97        10500.84
462.33        10180.72
462.70        10282.75
463.07        10009.93
463.44        10170.84
463.80        10262.35
464.17        10102.54
464.54        9898.686
464.91        9882.307
465.27        9865.497
465.64        9622.646
466.01        9912.074
466.38        9615.766
466.74        9498.269
467.11         9784.41
467.48        9623.409
467.85        9675.962
468.21        9170.071
468.58        9234.217
468.95        8639.179
469.32        9155.578
469.68        8748.484
470.05          8867.8
470.42        8763.051
470.78        8335.997
471.15        8309.528
471.52        7952.044
471.89        8325.927
472.25        7921.507
472.62        7901.809
472.99        7936.443
473.35        7412.737
473.72        7791.874
474.09        7328.434
474.45          7359.5
474.82         7085.13
475.19         7100.58
475.55        7200.368
475.92        7074.992
476.29         7125.17
476.66        7066.596
477.02        6608.794
477.39         6941.91
477.76        6814.264
478.12        6685.076
478.49        6717.567
478.86        6932.359
479.22        7588.372
479.59         6876.25
479.96        6734.868
480.32        6847.957
480.69        6687.671
481.05        6627.066
481.42        7010.196
481.79        6721.236
482.15        6801.356
482.52        6657.712
482.89        6856.893
483.25        7137.688
483.62        6812.302
483.99        6796.707
484.35        7062.162
484.72        7336.549
485.08        6816.907
485.45        7154.577
485.82        7059.488
486.18        6996.736
486.55        7131.529
486.91        7293.054
487.28        7320.239
487.65        7263.976
488.01        7394.783
488.38         7641.44
488.74        7325.477
489.11        7343.149
489.48        7365.298
489.84        7487.647
490.21        7656.351
490.57        7723.256
490.94        7564.861
491.30        7647.749
491.67        7850.452
492.04        7778.708
492.40        7930.911
492.77        7917.509
493.13        7867.003
493.50        8096.781
493.86        8013.423
494.23        8149.509
494.60        8191.705
494.96        8344.419
495.33        8458.302
495.69        8085.454
496.06        8319.271
496.42        8434.395
496.79        8285.533
497.15        8567.513
497.52        8770.534
497.88        8807.596
498.25        8880.715
498.61        9310.766
498.98        8876.421
499.34        8719.601
499.71        8948.625
500.07        8965.693
500.44         9002.62
500.80        9240.088
501.17        9346.692
501.53        9322.547
501.90         9378.39
502.26        9217.921
502.63        9691.636
502.99        9717.851
503.36        10126.71
503.72        9955.184
504.09        10036.61
504.45        9827.846
504.82        10203.03
505.18        9880.081
505.55        10116.94
505.91        10431.45
506.28        10204.35
506.64        10373.67
507.00        10689.72
507.37         10649.4
507.73        10849.18
508.10        10697.86
508.46        10682.03
508.83        10912.26
509.19        10718.36
509.55        10942.58
509.92        11145.69
510.28        11244.68
510.65         11415.8
511.01        11405.15
511.38         11358.9
511.74        11508.23
512.10        12130.16
512.47        11947.09
512.83        11627.01
513.20        11746.43
513.56        12046.61
513.92        11993.38
514.29        12063.26
514.65        11676.62
515.02        12535.04
515.38        12704.27
515.74        12571.68
516.11        12309.96
516.47        12939.93
516.83        12581.56
517.20        13122.59
517.56        12883.17
517.93        13151.85
518.29        12962.74
518.65        13251.09
519.02        13522.54
519.38        13390.74
519.74        13318.67
520.11        13490.57
520.47        13735.71
520.83        13774.62
521.20        13528.57
521.56        13909.27
521.92         13963.3
522.29        14081.69
522.65         14015.4
523.01        14270.22
523.38        14270.76
523.74        14535.71
524.10        14088.57
524.47        14791.54
524.83         14614.6
525.19        14602.25
525.55        14669.64
525.92        14904.37
526.28        14946.69
526.64        14601.75
527.01        15051.73
527.37        15241.52
527.73        15001.59
528.09        15424.04
528.46        15431.89
528.82        15398.55
529.18        15941.82
529.55        15543.09
529.91        15449.47
530.27        16037.41
530.63        15957.14
531.00         16132.3
531.36        16065.33
531.72        16120.69
532.08        16248.87
532.45        16324.69
532.81         16281.7
533.17        16872.37
533.53        16299.09
533.89        16823.17
534.26        16951.73
534.62        16956.25
534.98        16789.78
535.34        17267.41
535.71        17062.56
536.07        16897.48
536.43        17117.66
536.79        17248.91
537.15        17245.93
537.52        17291.57
537.88        17524.22
538.24        17475.88
538.60        17789.49
538.96        17834.22
539.33        17835.91
539.69        17967.68
540.05        17898.73
540.41        18143.53
540.77        18193.98
541.13         18351.8
541.50        18291.81
541.86        18726.65
542.22        18278.71
542.58        18814.24
542.94        18583.57
543.30        18947.92
543.66         18845.5
544.03        18776.84
544.39        18748.36
544.75        18913.29
545.11        18407.57
545.47         18916.3
545.83        18941.78
546.19        19852.86
546.55        18893.45
546.92        19278.96
547.28        19296.88
547.64        19110.92
548.00        19196.76
548.36        19671.19
548.72        19321.32
549.08        19226.43
549.44        19986.75
549.80         19606.1
550.16        19920.37
550.53        19539.39
550.89        19851.12
551.25        19977.46
551.61        19674.83
551.97        20095.87
552.33        19780.52
552.69        20120.42
553.05         20172.2
553.41        19970.62
553.77        20056.87
554.13        20406.58
554.49        20109.47
554.85        19941.76
555.21        20066.28
555.57        20219.35
555.93        20072.34
556.29        20059.89
556.65        20100.55
557.01        20552.76
557.37        20178.17
557.73        20261.61
558.09        20140.31
558.46        20574.13
558.82        20521.19
559.18        20744.29
559.54        20580.59
559.90        20455.21
560.26        20504.92
560.61        20012.11
560.97        20278.39
561.33        20382.94
561.69        20623.25
562.05        20635.94
562.41        19919.92
562.77        20468.88
563.13         20523.8
563.49        20143.03
563.85        19861.18
564.21        19777.15
564.57        20205.13
564.93        20102.31
565.29        20469.48
565.65         20262.1
566.01        20120.76
566.37        20297.11
566.73        20040.56
567.09        20318.26
567.45         19932.8
567.81        19938.64
568.17        19865.49
568.52        19868.85
568.88        19833.46
569.24        19464.73
569.60        19501.87
569.96         19860.8
570.32        19712.32
570.68        19334.05
571.04        19382.76
571.40        19055.88
571.76        19550.95
572.11        19490.69
572.47        19708.62
572.83         19450.6
573.19        19287.36
573.55        19280.28
573.91        19042.55
574.27         18898.6
574.63        18853.18
574.98        19260.24
575.34        18982.06
575.70        18871.88
576.06        19177.36
576.42        18946.38
576.78        18790.52
577.14        18812.28
577.49        18348.34
577.85        18780.32
578.21         18770.8
578.57        18542.07
578.93        18457.68
579.28        18364.84
579.64        18228.99
580.00        18055.27
580.36        17778.68
580.72        18010.15
581.08        18037.65
581.43        17646.21
581.79        17778.72
582.15        17506.26
582.51        17793.43
582.86        17422.61
583.22        17577.47
583.58         17663.7
583.94        17142.36
584.30        16972.19
584.65        16849.97
585.01        17278.97
585.37        17285.95
585.73        17052.83
586.08        16942.48
586.44        16851.75
586.80        17003.42
587.16        16695.74
587.51        16484.63
587.87        16818.86
588.23        16721.11
588.59        16460.43
588.94        16730.99
589.30        16367.09
589.66        16192.86
590.02        15970.64
590.37        15798.89
590.73        15997.65
591.09        15889.34
591.44        15880.83
591.80        15864.47
592.16        15404.41
592.51        15533.77
592.87        15491.33
593.23        15476.06
593.58         15106.3
593.94        15338.63
594.30        15164.16
594.66           15215
595.01        14912.27
595.37         14807.5
595.73        15024.84
596.08        14447.32
596.44        14533.37
596.79        14408.17
597.15        14298.81
597.51         14796.2
597.86        14311.95
598.22        14264.56
598.58        14096.77
598.93        14267.56
599.29        14170.86
599.65         14208.6
600.00        14229.16
600.36        13959.59
600.71        13546.96
601.07        13517.94
601.43        13414.22
601.78        13547.82
602.14        13569.87
602.49        13606.02
602.85         13354.7
603.21        13632.89
603.56        13508.01
603.92        13368.59
604.27        12812.33
604.63        13065.45
604.99        13136.02
605.34        12843.14
605.70        12704.24
606.05        12477.87
606.41        12667.74
606.76        12694.34
607.12        11987.64
607.48        12226.17
607.83        11986.39
608.19        12303.91
608.54        12096.06
608.90        11863.65
609.25        11842.16
609.61         11926.6
609.96        11925.14
610.32        11747.98
610.67        11650.52
611.03        11773.13
611.38        11590.71
611.74        11768.19
612.09        11461.15
612.45         11264.2
612.80        11527.64
613.16        11508.45
613.51         11065.2
613.87        11412.87
614.22        10848.33
614.58         11345.4
614.93        10705.88
615.29        10579.79
615.64        10969.82
616.00        10536.42
616.35        10423.62
616.71        10367.59
617.06        10454.51
617.41           10268
617.77        10576.12
618.12        10394.32
618.48        10092.38
618.83        9824.798
619.19         9687.41
619.54        10114.32
619.90           10030
620.25         9474.57
620.60        10018.28
620.96        9864.809
621.31        9711.546
621.67         9465.35
622.02        9364.599
622.37         9676.23
622.73        9137.231
623.08        8852.922
623.44        9014.064
623.79        9223.923
624.14        8952.868
624.50        9005.473
624.85        8921.354
625.21        8653.158
625.56        8735.243
625.91        8638.867
626.27        8566.753
626.62        8503.673
626.97        8482.483
627.33        8184.357
627.68        8392.046
628.03        8227.388
628.39        8355.961
628.74        8203.165
629.09         8249.51
629.45        8006.683
629.80        8193.392
630.15        8061.286
630.51        7773.001
630.86        7798.213
631.21        7606.787
631.57        7404.606
631.92        7649.359
632.27        7720.418
632.63         7645.07
632.98        7350.152
633.33        7692.704
633.69        7714.719
634.04        7403.944
634.39        7138.673
634.74        7207.113
635.10        7201.116
635.45        7223.449
635.80        7365.863
636.15        6954.315
636.51        6990.179
636.86        6811.054
637.21        7146.245
637.56         6815.62
637.92        6465.314
638.27        6542.949
638.62        6460.189
638.97        6953.582
639.33        6657.029
639.68        6771.314
640.03        6718.611
640.38        6660.258
640.74        6322.614
641.09        6186.572
641.44         6442.92
641.79        6192.259
642.14         6188.34
642.50        6001.653
642.85        5949.923
643.20        6026.074
643.55        5817.454
643.90        6075.053
644.26        5530.738
644.61        5653.494
644.96        5551.021
645.31        5715.185
645.66        5769.558
646.01         5767.89
646.37        5606.848
646.72        5836.408
647.07        5659.732
647.42        5384.256
647.77        5351.612
648.12        5323.043
648.47        5284.943
648.83        5596.763
649.18        5088.496
649.53        5159.555
649.88        5189.296
650.23        5218.759
650.58        4919.441
650.93        4839.883
651.28        4983.851
651.64        4606.812
651.99        4973.789
652.34        4992.764
652.69        5078.689
653.04        4808.769
653.39        4758.896
653.74        4524.609
654.09        4487.917
654.44        4571.621
654.79        4305.463
655.14        4585.709
655.49        4200.716
655.85        4481.781
